> Optical constants of ZnO, Zinc Oxide (for E perperdicular to c)
> from: S. Adachi, "Optical constants of crystalline and amprphous semiconductors", p. 427, Kluwer Academic Publishers, 1999.
> Extrapolated outside the data range with the purpose to illustrate a graded Zn(O,S) material
> Distributed with SCAPS2.8, may 2009, MB
lambda (nm)	alpha (1/m)
70.0	8.3020E+06
80.0	9.0820E+06
90.0	9.9460E+06
100.0	1.0920E+07
110.0	1.2010E+07
120.0	1.3180E+07
130.0	1.4440E+07
140.0	1.5810E+07
150.0	1.7250E+07
160.0	1.8590E+07
170.0	1.9800E+07
180.0	2.0920E+07
190.0	2.1760E+07
200.0	2.2060E+07
210.0	2.1970E+07
220.0	2.1860E+07
230.0	2.1670E+07
240.0	2.1370E+07
250.0	2.0890E+07
260.0	2.0230E+07
270.0	1.9450E+07
280.0	1.8630E+07
290.0	1.7870E+07
300.0	1.7280E+07
310.0	1.7000E+07
320.0	1.7000E+07
330.0	1.6990E+07
340.0	1.7040E+07
350.0	1.6850E+07
360.0	1.7950E+07
370.0	1.9990E+07
380.0	1.0650E+07
390.0	1.9170E+06
400.0	4.0810E+05
410.0	2.1780E+05
420.0	9.4728E+04
430.0	4.0485E+04
440.0	3.2902E+04
450.0	3.8222E+04
460.0	3.6493E+04
470.0	3.2792E+04
480.0	3.7491E+04
490.0	4.6088E+04
500.0	4.7951E+04
510.0	4.6957E+04
520.0	5.0154E+04
530.0	5.3550E+04
540.0	5.1888E+04
550.0	4.8956E+04
560.0	4.8198E+04
570.0	4.7256E+04
580.0	4.4355E+04
590.0	4.1477E+04
600.0	3.9792E+04

