//Spectrum in AMPS
//nm	W/m2
380.0	14.06194111
400.0	19.56648534
420.0	22.98600889
440.0	26.09466666
460.0	31.61038904
480.0	31.90727623
500.0	31.18718984
520.0	30.71349906
540.0	31.23133306
560.0	30.64801185
580.0	29.00894991
600.0	28.836563
620.0	29.25200773
640.0	28.55514993
660.0	28.17140483
680.0	25.23953917
700.0	24.54678727
720.0	22.20956106
740.0	23.32730932
760.0	21.43269835
780.0	21.90183183
800.0	20.73352191
820.0	17.44195796
840.0	18.96582215
860.0	19.26389892
880.0	17.99087312
900.0	16.13434945
