//Spectrum in AMPS
//By Angus Rockett, UIUC
//2011 Sep. 5th
//nm	W/m2
300	0.19
320	3.62
340	8.708
360	10.408
380	14.254
400	20.266
420	23.686
440	26.046
460	31.998
480	32.572
500	30.98
520	29.704
540	31.02
560	31.236
580	30.036
600	27.916
620	29.712
640	28.688
660	28
680	23
700	27
720	20
740	25.2
760	12.864
780	22.626
800	21.636
820	15.702
840	19.202
860	19.582
880	18.668
900	14.974
920	10
940	5.166
960	10.538
980	12.932
1000	14.938
1020	14.4
1040	13.814
1060	12.752
1080	12.752
1100	8.252
1120	2.18
1140	2.644
1160	6.782
1180	9.202
1200	8.472
1220	9
1240	9.612
1260	9.2
1280	8.8
1300	7.6
